CdHgTe
    91.00000    98.00000     0.05000    15.00000     0.20000    36.00000     0.00000     0.00000     0.00000   141    10.0  1253.60
PE 10.000KE/1  Ex=1253.599eV WF=0.000eV Ck=XL Det=CTR1 
  Ekin    Phi    Theta  Counts
  90.950 36.000  0.000 397
  90.900 36.000  0.000 379
  90.850 36.000  0.000 383
  90.800 36.000  0.000 432
  90.750 36.000  0.000 407
  90.700 36.000  0.000 396
  90.650 36.000  0.000 430
  90.600 36.000  0.000 414
  90.550 36.000  0.000 433
  90.500 36.000  0.000 464
  90.450 36.000  0.000 429
  90.400 36.000  0.000 493
  90.350 36.000  0.000 468
  90.300 36.000  0.000 507
  90.250 36.000  0.000 509
  90.200 36.000  0.000 475
  90.150 36.000  0.000 446
  90.100 36.000  0.000 496
  90.050 36.000  0.000 493
  90.000 36.000  0.000 410
  89.950 36.000  0.000 439
  89.900 36.000  0.000 465
  89.850 36.000  0.000 464
  89.800 36.000  0.000 432
  89.750 36.000  0.000 477
  89.700 36.000  0.000 445
  89.650 36.000  0.000 426
  89.600 36.000  0.000 408
  89.550 36.000  0.000 407
  89.500 36.000  0.000 417
  89.450 36.000  0.000 352
  89.400 36.000  0.000 394
  89.350 36.000  0.000 364
  89.300 36.000  0.000 345
  89.250 36.000  0.000 351
  89.200 36.000  0.000 341
  89.150 36.000  0.000 305
  89.100 36.000  0.000 320
  89.050 36.000  0.000 270
  89.000 36.000  0.000 275
  88.950 36.000  0.000 257
  88.900 36.000  0.000 250
  88.850 36.000  0.000 264
  88.800 36.000  0.000 264
  88.750 36.000  0.000 290
  88.700 36.000  0.000 244
  88.650 36.000  0.000 274
  88.600 36.000  0.000 244
  88.550 36.000  0.000 235
  88.500 36.000  0.000 234
  88.450 36.000  0.000 258
  88.400 36.000  0.000 252
  88.350 36.000  0.000 233
  88.300 36.000  0.000 242
  88.250 36.000  0.000 213
  88.200 36.000  0.000 190
  88.150 36.000  0.000 216
  88.100 36.000  0.000 200
  88.050 36.000  0.000 237
  88.000 36.000  0.000 214
  87.950 36.000  0.000 220
  87.900 36.000  0.000 199
  87.850 36.000  0.000 204
  87.800 36.000  0.000 195
  87.750 36.000  0.000 204
  87.700 36.000  0.000 245
  87.650 36.000  0.000 204
  87.600 36.000  0.000 233
  87.550 36.000  0.000 229
  87.500 36.000  0.000 224
  87.450 36.000  0.000 223
  87.400 36.000  0.000 218
  87.350 36.000  0.000 214
  87.300 36.000  0.000 229
  87.250 36.000  0.000 241
  87.200 36.000  0.000 234
  87.150 36.000  0.000 243
  87.100 36.000  0.000 257
  87.050 36.000  0.000 228
  87.000 36.000  0.000 280
  86.950 36.000  0.000 254
  86.900 36.000  0.000 236
  86.850 36.000  0.000 286
  86.800 36.000  0.000 279
  86.750 36.000  0.000 254
  86.700 36.000  0.000 269
  86.650 36.000  0.000 247
  86.600 36.000  0.000 276
  86.550 36.000  0.000 229
  86.500 36.000  0.000 289
  86.450 36.000  0.000 267
  86.400 36.000  0.000 238
  86.350 36.000  0.000 216
  86.300 36.000  0.000 239
  86.250 36.000  0.000 253
  86.200 36.000  0.000 235
  86.150 36.000  0.000 268
  86.100 36.000  0.000 215
  86.050 36.000  0.000 233
  86.000 36.000  0.000 209
  85.950 36.000  0.000 205
  85.900 36.000  0.000 220
  85.850 36.000  0.000 189
  85.800 36.000  0.000 196
  85.750 36.000  0.000 206
  85.700 36.000  0.000 192
  85.650 36.000  0.000 195
  85.600 36.000  0.000 176
  85.550 36.000  0.000 173
  85.500 36.000  0.000 120
  85.450 36.000  0.000 128
  85.400 36.000  0.000 123
  85.350 36.000  0.000 104
  85.300 36.000  0.000 100
  85.250 36.000  0.000 91
  85.200 36.000  0.000 89
  85.150 36.000  0.000 75
  85.100 36.000  0.000 69
  85.050 36.000  0.000 55
  85.000 36.000  0.000 52
  84.950 36.000  0.000 48
  84.900 36.000  0.000 38
  84.850 36.000  0.000 29
  84.800 36.000  0.000 35
  84.750 36.000  0.000 28
  84.700 36.000  0.000 18
  84.650 36.000  0.000 16
  84.600 36.000  0.000 12
  84.550 36.000  0.000 6
  84.500 36.000  0.000 14
  84.450 36.000  0.000 8
  84.400 36.000  0.000 9
  84.350 36.000  0.000 7
  84.300 36.000  0.000 5
  84.250 36.000  0.000 7
  84.200 36.000  0.000 7
  84.150 36.000  0.000 8
  84.100 36.000  0.000 4
  84.050 36.000  0.000 7
  84.000 36.000  0.000 5
  83.950 36.000  0.000 4
    91.00000    98.00000     0.05000    15.00000     0.20000    34.00000     0.00000     0.00000     0.00000   141    10.0  1253.60
PE 10.000KE/1  Ex=1253.599eV WF=0.000eV Ck=XL Det=CTR1 
  Ekin    Phi    Theta  Counts
  90.950 34.000  0.000 385
  90.900 34.000  0.000 383
  90.850 34.000  0.000 426
  90.800 34.000  0.000 432
  90.750 34.000  0.000 424
  90.700 34.000  0.000 466
  90.650 34.000  0.000 424
  90.600 34.000  0.000 474
  90.550 34.000  0.000 497
  90.500 34.000  0.000 468
  90.450 34.000  0.000 524
  90.400 34.000  0.000 541
  90.350 34.000  0.000 495
  90.300 34.000  0.000 494
  90.250 34.000  0.000 476
  90.200 34.000  0.000 520
  90.150 34.000  0.000 484
  90.100 34.000  0.000 499
  90.050 34.000  0.000 516
  90.000 34.000  0.000 490
  89.950 34.000  0.000 474
  89.900 34.000  0.000 456
  89.850 34.000  0.000 414
  89.800 34.000  0.000 406
  89.750 34.000  0.000 409
  89.700 34.000  0.000 413
  89.650 34.000  0.000 389
  89.600 34.000  0.000 380
  89.550 34.000  0.000 323
  89.500 34.000  0.000 373
  89.450 34.000  0.000 340
  89.400 34.000  0.000 325
  89.350 34.000  0.000 309
  89.300 34.000  0.000 341
  89.250 34.000  0.000 311
  89.200 34.000  0.000 324
  89.150 34.000  0.000 285
  89.100 34.000  0.000 281
  89.050 34.000  0.000 275
  89.000 34.000  0.000 280
  88.950 34.000  0.000 289
  88.900 34.000  0.000 272
  88.850 34.000  0.000 251
  88.800 34.000  0.000 274
  88.750 34.000  0.000 255
  88.700 34.000  0.000 261
  88.650 34.000  0.000 259
  88.600 34.000  0.000 210
  88.550 34.000  0.000 223
  88.500 34.000  0.000 220
  88.450 34.000  0.000 227
  88.400 34.000  0.000 200
  88.350 34.000  0.000 228
  88.300 34.000  0.000 227
  88.250 34.000  0.000 208
  88.200 34.000  0.000 182
  88.150 34.000  0.000 201
  88.100 34.000  0.000 205
  88.050 34.000  0.000 239
  88.000 34.000  0.000 195
  87.950 34.000  0.000 205
  87.900 34.000  0.000 239
  87.850 34.000  0.000 221
  87.800 34.000  0.000 227
  87.750 34.000  0.000 245
  87.700 34.000  0.000 219
  87.650 34.000  0.000 262
  87.600 34.000  0.000 230
  87.550 34.000  0.000 213
  87.500 34.000  0.000 220
  87.450 34.000  0.000 232
  87.400 34.000  0.000 240
  87.350 34.000  0.000 267
  87.300 34.000  0.000 241
  87.250 34.000  0.000 267
  87.200 34.000  0.000 251
  87.150 34.000  0.000 227
  87.100 34.000  0.000 239
  87.050 34.000  0.000 257
  87.000 34.000  0.000 214
  86.950 34.000  0.000 237
  86.900 34.000  0.000 215
  86.850 34.000  0.000 231
  86.800 34.000  0.000 241
  86.750 34.000  0.000 270
  86.700 34.000  0.000 257
  86.650 34.000  0.000 247
  86.600 34.000  0.000 242
  86.550 34.000  0.000 247
  86.500 34.000  0.000 250
  86.450 34.000  0.000 262
  86.400 34.000  0.000 219
  86.350 34.000  0.000 249
  86.300 34.000  0.000 257
  86.250 34.000  0.000 252
  86.200 34.000  0.000 222
  86.150 34.000  0.000 235
  86.100 34.000  0.000 211
  86.050 34.000  0.000 221
  86.000 34.000  0.000 210
  85.950 34.000  0.000 201
  85.900 34.000  0.000 195
  85.850 34.000  0.000 181
  85.800 34.000  0.000 175
  85.750 34.000  0.000 145
  85.700 34.000  0.000 148
  85.650 34.000  0.000 137
  85.600 34.000  0.000 142
  85.550 34.000  0.000 124
  85.500 34.000  0.000 104
  85.450 34.000  0.000 91
  85.400 34.000  0.000 83
  85.350 34.000  0.000 79
  85.300 34.000  0.000 67
  85.250 34.000  0.000 57
  85.200 34.000  0.000 51
  85.150 34.000  0.000 43
  85.100 34.000  0.000 45
  85.050 34.000  0.000 30
  85.000 34.000  0.000 36
  84.950 34.000  0.000 24
  84.900 34.000  0.000 21
  84.850 34.000  0.000 18
  84.800 34.000  0.000 16
  84.750 34.000  0.000 19
  84.700 34.000  0.000 16
  84.650 34.000  0.000 12
  84.600 34.000  0.000 8
  84.550 34.000  0.000 10
  84.500 34.000  0.000 8
  84.450 34.000  0.000 13
  84.400 34.000  0.000 7
  84.350 34.000  0.000 10
  84.300 34.000  0.000 4
  84.250 34.000  0.000 4
  84.200 34.000  0.000 7
  84.150 34.000  0.000 6
  84.100 34.000  0.000 7
  84.050 34.000  0.000 5
  84.000 34.000  0.000 8
  83.950 34.000  0.000 5
    91.00000    98.00000     0.05000    15.00000     0.20000    32.00000     0.00000     0.00000     0.00000   141    10.0  1253.60
PE 10.000KE/1  Ex=1253.599eV WF=0.000eV Ck=XL Det=CTR1 
  Ekin    Phi    Theta  Counts
  90.950 32.000  0.000 393
  90.900 32.000  0.000 446
  90.850 32.000  0.000 405
  90.800 32.000  0.000 481
  90.750 32.000  0.000 502
  90.700 32.000  0.000 460
  90.650 32.000  0.000 490
  90.600 32.000  0.000 521
  90.550 32.000  0.000 487
  90.500 32.000  0.000 532
  90.450 32.000  0.000 478
  90.400 32.000  0.000 559
  90.350 32.000  0.000 579
  90.300 32.000  0.000 522
  90.250 32.000  0.000 551
  90.200 32.000  0.000 494
  90.150 32.000  0.000 497
  90.100 32.000  0.000 493
  90.050 32.000  0.000 506
  90.000 32.000  0.000 507
  89.950 32.000  0.000 458
  89.900 32.000  0.000 471
  89.850 32.000  0.000 460
  89.800 32.000  0.000 443
  89.750 32.000  0.000 424
  89.700 32.000  0.000 408
  89.650 32.000  0.000 433
  89.600 32.000  0.000 390
  89.550 32.000  0.000 368
  89.500 32.000  0.000 356
  89.450 32.000  0.000 347
  89.400 32.000  0.000 363
  89.350 32.000  0.000 323
  89.300 32.000  0.000 347
  89.250 32.000  0.000 343
  89.200 32.000  0.000 288
  89.150 32.000  0.000 321
  89.100 32.000  0.000 265
  89.050 32.000  0.000 272
  89.000 32.000  0.000 294
  88.950 32.000  0.000 264
  88.900 32.000  0.000 250
  88.850 32.000  0.000 276
  88.800 32.000  0.000 278
  88.750 32.000  0.000 239
  88.700 32.000  0.000 236
  88.650 32.000  0.000 258
  88.600 32.000  0.000 242
  88.550 32.000  0.000 248
  88.500 32.000  0.000 212
  88.450 32.000  0.000 225
  88.400 32.000  0.000 200
  88.350 32.000  0.000 224
  88.300 32.000  0.000 218
  88.250 32.000  0.000 230
  88.200 32.000  0.000 210
  88.150 32.000  0.000 236
  88.100 32.000  0.000 222
  88.050 32.000  0.000 219
  88.000 32.000  0.000 239
  87.950 32.000  0.000 236
  87.900 32.000  0.000 208
  87.850 32.000  0.000 243
  87.800 32.000  0.000 255
  87.750 32.000  0.000 201
  87.700 32.000  0.000 220
  87.650 32.000  0.000 239
  87.600 32.000  0.000 229
  87.550 32.000  0.000 225
  87.500 32.000  0.000 247
  87.450 32.000  0.000 232
  87.400 32.000  0.000 248
  87.350 32.000  0.000 224
  87.300 32.000  0.000 242
  87.250 32.000  0.000 262
  87.200 32.000  0.000 248
  87.150 32.000  0.000 260
  87.100 32.000  0.000 249
  87.050 32.000  0.000 253
  87.000 32.000  0.000 248
  86.950 32.000  0.000 262
  86.900 32.000  0.000 250
  86.850 32.000  0.000 286
  86.800 32.000  0.000 236
  86.750 32.000  0.000 254
  86.700 32.000  0.000 251
  86.650 32.000  0.000 246
  86.600 32.000  0.000 274
  86.550 32.000  0.000 249
  86.500 32.000  0.000 244
  86.450 32.000  0.000 257
  86.400 32.000  0.000 254
  86.350 32.000  0.000 230
  86.300 32.000  0.000 249
  86.250 32.000  0.000 238
  86.200 32.000  0.000 244
  86.150 32.000  0.000 228
  86.100 32.000  0.000 175
  86.050 32.000  0.000 196
  86.000 32.000  0.000 172
  85.950 32.000  0.000 173
  85.900 32.000  0.000 179
  85.850 32.000  0.000 163
  85.800 32.000  0.000 141
  85.750 32.000  0.000 141
  85.700 32.000  0.000 117
  85.650 32.000  0.000 135
  85.600 32.000  0.000 98
  85.550 32.000  0.000 102
  85.500 32.000  0.000 88
  85.450 32.000  0.000 95
  85.400 32.000  0.000 83
  85.350 32.000  0.000 61
  85.300 32.000  0.000 64
  85.250 32.000  0.000 51
  85.200 32.000  0.000 56
  85.150 32.000  0.000 43
  85.100 32.000  0.000 23
  85.050 32.000  0.000 31
  85.000 32.000  0.000 20
  84.950 32.000  0.000 21
  84.900 32.000  0.000 28
  84.850 32.000  0.000 18
  84.800 32.000  0.000 14
  84.750 32.000  0.000 12
  84.700 32.000  0.000 13
  84.650 32.000  0.000 9
  84.600 32.000  0.000 10
  84.550 32.000  0.000 13
  84.500 32.000  0.000 5
  84.450 32.000  0.000 8
  84.400 32.000  0.000 6
  84.350 32.000  0.000 2
  84.300 32.000  0.000 6
  84.250 32.000  0.000 8
  84.200 32.000  0.000 8
  84.150 32.000  0.000 4
  84.100 32.000  0.000 1
  84.050 32.000  0.000 4
  84.000 32.000  0.000 8
  83.950 32.000  0.000 3
    91.00000    98.00000     0.05000    15.00000     0.20000    30.00000     0.00000     0.00000     0.00000   141    10.0  1253.60
PE 10.000KE/1  Ex=1253.599eV WF=0.000eV Ck=XL Det=CTR1 
  Ekin    Phi    Theta  Counts
  90.950 30.000  0.000 456
  90.900 30.000  0.000 467
  90.850 30.000  0.000 470
  90.800 30.000  0.000 505
  90.750 30.000  0.000 450
  90.700 30.000  0.000 494
  90.650 30.000  0.000 532
  90.600 30.000  0.000 494
  90.550 30.000  0.000 527
  90.500 30.000  0.000 532
  90.450 30.000  0.000 532
  90.400 30.000  0.000 608
  90.350 30.000  0.000 527
  90.300 30.000  0.000 530
  90.250 30.000  0.000 548
  90.200 30.000  0.000 509
  90.150 30.000  0.000 531
  90.100 30.000  0.000 557
  90.050 30.000  0.000 501
  90.000 30.000  0.000 511
  89.950 30.000  0.000 482
  89.900 30.000  0.000 531
  89.850 30.000  0.000 504
  89.800 30.000  0.000 454
  89.750 30.000  0.000 383
  89.700 30.000  0.000 440
  89.650 30.000  0.000 407
  89.600 30.000  0.000 408
  89.550 30.000  0.000 374
  89.500 30.000  0.000 381
  89.450 30.000  0.000 324
  89.400 30.000  0.000 368
  89.350 30.000  0.000 320
  89.300 30.000  0.000 348
  89.250 30.000  0.000 342
  89.200 30.000  0.000 323
  89.150 30.000  0.000 303
  89.100 30.000  0.000 334
  89.050 30.000  0.000 322
  89.000 30.000  0.000 288
  88.950 30.000  0.000 297
  88.900 30.000  0.000 275
  88.850 30.000  0.000 270
  88.800 30.000  0.000 310
  88.750 30.000  0.000 246
  88.700 30.000  0.000 250
  88.650 30.000  0.000 255
  88.600 30.000  0.000 254
  88.550 30.000  0.000 235
  88.500 30.000  0.000 227
  88.450 30.000  0.000 235
  88.400 30.000  0.000 277
  88.350 30.000  0.000 230
  88.300 30.000  0.000 226
  88.250 30.000  0.000 202
  88.200 30.000  0.000 212
  88.150 30.000  0.000 205
  88.100 30.000  0.000 217
  88.050 30.000  0.000 241
  88.000 30.000  0.000 243
  87.950 30.000  0.000 239
  87.900 30.000  0.000 248
  87.850 30.000  0.000 247
  87.800 30.000  0.000 265
  87.750 30.000  0.000 262
  87.700 30.000  0.000 263
  87.650 30.000  0.000 265
  87.600 30.000  0.000 243
  87.550 30.000  0.000 245
  87.500 30.000  0.000 261
  87.450 30.000  0.000 248
  87.400 30.000  0.000 252
  87.350 30.000  0.000 254
  87.300 30.000  0.000 197
  87.250 30.000  0.000 251
  87.200 30.000  0.000 270
  87.150 30.000  0.000 241
  87.100 30.000  0.000 262
  87.050 30.000  0.000 292
  87.000 30.000  0.000 255
  86.950 30.000  0.000 246
  86.900 30.000  0.000 277
  86.850 30.000  0.000 288
  86.800 30.000  0.000 268
  86.750 30.000  0.000 245
  86.700 30.000  0.000 266
  86.650 30.000  0.000 276
  86.600 30.000  0.000 269
  86.550 30.000  0.000 280
  86.500 30.000  0.000 258
  86.450 30.000  0.000 240
  86.400 30.000  0.000 232
  86.350 30.000  0.000 252
  86.300 30.000  0.000 221
  86.250 30.000  0.000 230
  86.200 30.000  0.000 221
  86.150 30.000  0.000 218
  86.100 30.000  0.000 198
  86.050 30.000  0.000 163
  86.000 30.000  0.000 177
  85.950 30.000  0.000 178
  85.900 30.000  0.000 177
  85.850 30.000  0.000 156
  85.800 30.000  0.000 138
  85.750 30.000  0.000 122
  85.700 30.000  0.000 119
  85.650 30.000  0.000 129
  85.600 30.000  0.000 119
  85.550 30.000  0.000 106
  85.500 30.000  0.000 93
  85.450 30.000  0.000 90
  85.400 30.000  0.000 69
  85.350 30.000  0.000 68
  85.300 30.000  0.000 63
  85.250 30.000  0.000 54
  85.200 30.000  0.000 33
  85.150 30.000  0.000 40
  85.100 30.000  0.000 23
  85.050 30.000  0.000 29
  85.000 30.000  0.000 21
  84.950 30.000  0.000 22
  84.900 30.000  0.000 22
  84.850 30.000  0.000 24
  84.800 30.000  0.000 11
  84.750 30.000  0.000 14
  84.700 30.000  0.000 9
  84.650 30.000  0.000 9
  84.600 30.000  0.000 4
  84.550 30.000  0.000 9
  84.500 30.000  0.000 7
  84.450 30.000  0.000 11
  84.400 30.000  0.000 10
  84.350 30.000  0.000 8
  84.300 30.000  0.000 6
  84.250 30.000  0.000 5
  84.200 30.000  0.000 3
  84.150 30.000  0.000 8
  84.100 30.000  0.000 4
  84.050 30.000  0.000 6
  84.000 30.000  0.000 4
  83.950 30.000  0.000 4
    91.00000    98.00000     0.05000    15.00000     0.20000    28.00000     0.00000     0.00000     0.00000   141    10.0  1253.60
PE 10.000KE/1  Ex=1253.599eV WF=0.000eV Ck=XL Det=CTR1 
  Ekin    Phi    Theta  Counts
  90.950 28.000  0.000 390
  90.900 28.000  0.000 437
  90.850 28.000  0.000 437
  90.800 28.000  0.000 427
  90.750 28.000  0.000 480
  90.700 28.000  0.000 522
  90.650 28.000  0.000 496
  90.600 28.000  0.000 528
  90.550 28.000  0.000 535
  90.500 28.000  0.000 533
  90.450 28.000  0.000 521
  90.400 28.000  0.000 521
  90.350 28.000  0.000 524
  90.300 28.000  0.000 562
  90.250 28.000  0.000 533
  90.200 28.000  0.000 551
  90.150 28.000  0.000 528
  90.100 28.000  0.000 529
  90.050 28.000  0.000 539
  90.000 28.000  0.000 502
  89.950 28.000  0.000 519
  89.900 28.000  0.000 458
  89.850 28.000  0.000 467
  89.800 28.000  0.000 444
  89.750 28.000  0.000 459
  89.700 28.000  0.000 458
  89.650 28.000  0.000 424
  89.600 28.000  0.000 447
  89.550 28.000  0.000 401
  89.500 28.000  0.000 390
  89.450 28.000  0.000 365
  89.400 28.000  0.000 348
  89.350 28.000  0.000 334
  89.300 28.000  0.000 372
  89.250 28.000  0.000 314
  89.200 28.000  0.000 290
  89.150 28.000  0.000 292
  89.100 28.000  0.000 284
  89.050 28.000  0.000 283
  89.000 28.000  0.000 264
  88.950 28.000  0.000 282
  88.900 28.000  0.000 282
  88.850 28.000  0.000 277
  88.800 28.000  0.000 248
  88.750 28.000  0.000 253
  88.700 28.000  0.000 244
  88.650 28.000  0.000 259
  88.600 28.000  0.000 275
  88.550 28.000  0.000 206
  88.500 28.000  0.000 241
  88.450 28.000  0.000 241
  88.400 28.000  0.000 220
  88.350 28.000  0.000 231
  88.300 28.000  0.000 215
  88.250 28.000  0.000 215
  88.200 28.000  0.000 220
  88.150 28.000  0.000 197
  88.100 28.000  0.000 200
  88.050 28.000  0.000 220
  88.000 28.000  0.000 231
  87.950 28.000  0.000 244
  87.900 28.000  0.000 248
  87.850 28.000  0.000 234
  87.800 28.000  0.000 250
  87.750 28.000  0.000 251
  87.700 28.000  0.000 245
  87.650 28.000  0.000 252
  87.600 28.000  0.000 246
  87.550 28.000  0.000 250
  87.500 28.000  0.000 267
  87.450 28.000  0.000 238
  87.400 28.000  0.000 255
  87.350 28.000  0.000 271
  87.300 28.000  0.000 267
  87.250 28.000  0.000 261
  87.200 28.000  0.000 270
  87.150 28.000  0.000 263
  87.100 28.000  0.000 249
  87.050 28.000  0.000 296
  87.000 28.000  0.000 273
  86.950 28.000  0.000 263
  86.900 28.000  0.000 234
  86.850 28.000  0.000 254
  86.800 28.000  0.000 266
  86.750 28.000  0.000 254
  86.700 28.000  0.000 266
  86.650 28.000  0.000 257
  86.600 28.000  0.000 259
  86.550 28.000  0.000 272
  86.500 28.000  0.000 275
  86.450 28.000  0.000 260
  86.400 28.000  0.000 228
  86.350 28.000  0.000 230
  86.300 28.000  0.000 191
  86.250 28.000  0.000 202
  86.200 28.000  0.000 198
  86.150 28.000  0.000 198
  86.100 28.000  0.000 173
  86.050 28.000  0.000 190
  86.000 28.000  0.000 170
  85.950 28.000  0.000 153
  85.900 28.000  0.000 155
  85.850 28.000  0.000 146
  85.800 28.000  0.000 141
  85.750 28.000  0.000 115
  85.700 28.000  0.000 112
  85.650 28.000  0.000 108
  85.600 28.000  0.000 96
  85.550 28.000  0.000 89
  85.500 28.000  0.000 91
  85.450 28.000  0.000 74
  85.400 28.000  0.000 65
  85.350 28.000  0.000 69
  85.300 28.000  0.000 59
  85.250 28.000  0.000 55
  85.200 28.000  0.000 38
  85.150 28.000  0.000 35
  85.100 28.000  0.000 32
  85.050 28.000  0.000 34
  85.000 28.000  0.000 25
  84.950 28.000  0.000 22
  84.900 28.000  0.000 16
  84.850 28.000  0.000 13
  84.800 28.000  0.000 19
  84.750 28.000  0.000 11
  84.700 28.000  0.000 13
  84.650 28.000  0.000 8
  84.600 28.000  0.000 10
  84.550 28.000  0.000 4
  84.500 28.000  0.000 7
  84.450 28.000  0.000 8
  84.400 28.000  0.000 4
  84.350 28.000  0.000 5
  84.300 28.000  0.000 5
  84.250 28.000  0.000 3
  84.200 28.000  0.000 6
  84.150 28.000  0.000 5
  84.100 28.000  0.000 5
  84.050 28.000  0.000 5
  84.000 28.000  0.000 6
  83.950 28.000  0.000 7
    91.00000    98.00000     0.05000    15.00000     0.20000    26.00000     0.00000     0.00000     0.00000   141    10.0  1253.60
PE 10.000KE/1  Ex=1253.599eV WF=0.000eV Ck=XL Det=CTR1 
  Ekin    Phi    Theta  Counts
  90.950 26.000  0.000 407
  90.900 26.000  0.000 440
  90.850 26.000  0.000 453
  90.800 26.000  0.000 466
  90.750 26.000  0.000 431
  90.700 26.000  0.000 457
  90.650 26.000  0.000 471
  90.600 26.000  0.000 489
  90.550 26.000  0.000 444
  90.500 26.000  0.000 481
  90.450 26.000  0.000 529
  90.400 26.000  0.000 518
  90.350 26.000  0.000 541
  90.300 26.000  0.000 513
  90.250 26.000  0.000 468
  90.200 26.000  0.000 520
  90.150 26.000  0.000 505
  90.100 26.000  0.000 473
  90.050 26.000  0.000 418
  90.000 26.000  0.000 504
  89.950 26.000  0.000 414
  89.900 26.000  0.000 395
  89.850 26.000  0.000 425
  89.800 26.000  0.000 411
  89.750 26.000  0.000 373
  89.700 26.000  0.000 388
  89.650 26.000  0.000 355
  89.600 26.000  0.000 392
  89.550 26.000  0.000 364
  89.500 26.000  0.000 361
  89.450 26.000  0.000 302
  89.400 26.000  0.000 325
  89.350 26.000  0.000 317
  89.300 26.000  0.000 308
  89.250 26.000  0.000 281
  89.200 26.000  0.000 267
  89.150 26.000  0.000 260
  89.100 26.000  0.000 274
  89.050 26.000  0.000 256
  89.000 26.000  0.000 258
  88.950 26.000  0.000 289
  88.900 26.000  0.000 233
  88.850 26.000  0.000 231
  88.800 26.000  0.000 256
  88.750 26.000  0.000 228
  88.700 26.000  0.000 220
  88.650 26.000  0.000 210
  88.600 26.000  0.000 216
  88.550 26.000  0.000 224
  88.500 26.000  0.000 198
  88.450 26.000  0.000 183
  88.400 26.000  0.000 225
  88.350 26.000  0.000 210
  88.300 26.000  0.000 197
  88.250 26.000  0.000 225
  88.200 26.000  0.000 204
  88.150 26.000  0.000 211
  88.100 26.000  0.000 198
  88.050 26.000  0.000 219
  88.000 26.000  0.000 222
  87.950 26.000  0.000 201
  87.900 26.000  0.000 239
  87.850 26.000  0.000 226
  87.800 26.000  0.000 223
  87.750 26.000  0.000 240
  87.700 26.000  0.000 225
  87.650 26.000  0.000 224
  87.600 26.000  0.000 233
  87.550 26.000  0.000 203
  87.500 26.000  0.000 257
  87.450 26.000  0.000 230
  87.400 26.000  0.000 275
  87.350 26.000  0.000 218
  87.300 26.000  0.000 267
  87.250 26.000  0.000 244
  87.200 26.000  0.000 239
  87.150 26.000  0.000 256
  87.100 26.000  0.000 229
  87.050 26.000  0.000 235
  87.000 26.000  0.000 221
  86.950 26.000  0.000 242
  86.900 26.000  0.000 212
  86.850 26.000  0.000 220
  86.800 26.000  0.000 223
  86.750 26.000  0.000 236
  86.700 26.000  0.000 222
  86.650 26.000  0.000 210
  86.600 26.000  0.000 232
  86.550 26.000  0.000 180
  86.500 26.000  0.000 197
  86.450 26.000  0.000 214
  86.400 26.000  0.000 206
  86.350 26.000  0.000 215
  86.300 26.000  0.000 200
  86.250 26.000  0.000 174
  86.200 26.000  0.000 181
  86.150 26.000  0.000 178
  86.100 26.000  0.000 161
  86.050 26.000  0.000 160
  86.000 26.000  0.000 151
  85.950 26.000  0.000 146
  85.900 26.000  0.000 127
  85.850 26.000  0.000 121
  85.800 26.000  0.000 121
  85.750 26.000  0.000 98
  85.700 26.000  0.000 104
  85.650 26.000  0.000 98
  85.600 26.000  0.000 88
  85.550 26.000  0.000 84
  85.500 26.000  0.000 89
  85.450 26.000  0.000 59
  85.400 26.000  0.000 56
  85.350 26.000  0.000 52
  85.300 26.000  0.000 54
  85.250 26.000  0.000 41
  85.200 26.000  0.000 33
  85.150 26.000  0.000 32
  85.100 26.000  0.000 30
  85.050 26.000  0.000 21
  85.000 26.000  0.000 20
  84.950 26.000  0.000 14
  84.900 26.000  0.000 13
  84.850 26.000  0.000 15
  84.800 26.000  0.000 14
  84.750 26.000  0.000 7
  84.700 26.000  0.000 6
  84.650 26.000  0.000 10
  84.600 26.000  0.000 9
  84.550 26.000  0.000 2
  84.500 26.000  0.000 3
  84.450 26.000  0.000 4
  84.400 26.000  0.000 4
  84.350 26.000  0.000 2
  84.300 26.000  0.000 8
  84.250 26.000  0.000 2
  84.200 26.000  0.000 6
  84.150 26.000  0.000 5
  84.100 26.000  0.000 4
  84.050 26.000  0.000 5
  84.000 26.000  0.000 4
  83.950 26.000  0.000 3
    91.00000    98.00000     0.05000    15.00000     0.20000    24.00000     0.00000     0.00000     0.00000   141    10.0  1253.60
PE 10.000KE/1  Ex=1253.599eV WF=0.000eV Ck=XL Det=CTR1 
  Ekin    Phi    Theta  Counts
  90.950 24.000  0.000 365
  90.900 24.000  0.000 395
  90.850 24.000  0.000 367
  90.800 24.000  0.000 399
  90.750 24.000  0.000 381
  90.700 24.000  0.000 419
  90.650 24.000  0.000 436
  90.600 24.000  0.000 429
  90.550 24.000  0.000 440
  90.500 24.000  0.000 433
  90.450 24.000  0.000 443
  90.400 24.000  0.000 459
  90.350 24.000  0.000 438
  90.300 24.000  0.000 413
  90.250 24.000  0.000 427
  90.200 24.000  0.000 443
  90.150 24.000  0.000 427
  90.100 24.000  0.000 377
  90.050 24.000  0.000 431
  90.000 24.000  0.000 370
  89.950 24.000  0.000 386
  89.900 24.000  0.000 371
  89.850 24.000  0.000 345
  89.800 24.000  0.000 372
  89.750 24.000  0.000 387
  89.700 24.000  0.000 328
  89.650 24.000  0.000 350
  89.600 24.000  0.000 316
  89.550 24.000  0.000 299
  89.500 24.000  0.000 257
  89.450 24.000  0.000 291
  89.400 24.000  0.000 268
  89.350 24.000  0.000 279
  89.300 24.000  0.000 251
  89.250 24.000  0.000 277
  89.200 24.000  0.000 249
  89.150 24.000  0.000 256
  89.100 24.000  0.000 257
  89.050 24.000  0.000 216
  89.000 24.000  0.000 214
  88.950 24.000  0.000 230
  88.900 24.000  0.000 203
  88.850 24.000  0.000 208
  88.800 24.000  0.000 203
  88.750 24.000  0.000 206
  88.700 24.000  0.000 185
  88.650 24.000  0.000 202
  88.600 24.000  0.000 200
  88.550 24.000  0.000 167
  88.500 24.000  0.000 195
  88.450 24.000  0.000 182
  88.400 24.000  0.000 164
  88.350 24.000  0.000 211
  88.300 24.000  0.000 172
  88.250 24.000  0.000 172
  88.200 24.000  0.000 153
  88.150 24.000  0.000 214
  88.100 24.000  0.000 229
  88.050 24.000  0.000 165
  88.000 24.000  0.000 196
  87.950 24.000  0.000 214
  87.900 24.000  0.000 207
  87.850 24.000  0.000 184
  87.800 24.000  0.000 191
  87.750 24.000  0.000 202
  87.700 24.000  0.000 208
  87.650 24.000  0.000 206
  87.600 24.000  0.000 220
  87.550 24.000  0.000 217
  87.500 24.000  0.000 205
  87.450 24.000  0.000 197
  87.400 24.000  0.000 174
  87.350 24.000  0.000 198
  87.300 24.000  0.000 189
  87.250 24.000  0.000 200
  87.200 24.000  0.000 202
  87.150 24.000  0.000 199
  87.100 24.000  0.000 213
  87.050 24.000  0.000 224
  87.000 24.000  0.000 197
  86.950 24.000  0.000 194
  86.900 24.000  0.000 208
  86.850 24.000  0.000 214
  86.800 24.000  0.000 198
  86.750 24.000  0.000 201
  86.700 24.000  0.000 188
  86.650 24.000  0.000 188
  86.600 24.000  0.000 208
  86.550 24.000  0.000 217
  86.500 24.000  0.000 191
  86.450 24.000  0.000 176
  86.400 24.000  0.000 188
  86.350 24.000  0.000 158
  86.300 24.000  0.000 150
  86.250 24.000  0.000 145
  86.200 24.000  0.000 174
  86.150 24.000  0.000 138
  86.100 24.000  0.000 146
  86.050 24.000  0.000 137
  86.000 24.000  0.000 149
  85.950 24.000  0.000 137
  85.900 24.000  0.000 114
  85.850 24.000  0.000 116
  85.800 24.000  0.000 113
  85.750 24.000  0.000 103
  85.700 24.000  0.000 85
  85.650 24.000  0.000 96
  85.600 24.000  0.000 74
  85.550 24.000  0.000 73
  85.500 24.000  0.000 64
  85.450 24.000  0.000 57
  85.400 24.000  0.000 48
  85.350 24.000  0.000 55
  85.300 24.000  0.000 36
  85.250 24.000  0.000 37
  85.200 24.000  0.000 27
  85.150 24.000  0.000 40
  85.100 24.000  0.000 24
  85.050 24.000  0.000 28
  85.000 24.000  0.000 18
  84.950 24.000  0.000 12
  84.900 24.000  0.000 11
  84.850 24.000  0.000 9
  84.800 24.000  0.000 3
  84.750 24.000  0.000 7
  84.700 24.000  0.000 11
  84.650 24.000  0.000 8
  84.600 24.000  0.000 6
  84.550 24.000  0.000 3
  84.500 24.000  0.000 8
  84.450 24.000  0.000 5
  84.400 24.000  0.000 5
  84.350 24.000  0.000 5
  84.300 24.000  0.000 6
  84.250 24.000  0.000 2
  84.200 24.000  0.000 8
  84.150 24.000  0.000 1
  84.100 24.000  0.000 5
  84.050 24.000  0.000 2
  84.000 24.000  0.000 1
  83.950 24.000  0.000 2
    91.00000    98.00000     0.05000    15.00000     0.20000    22.00000     0.00000     0.00000     0.00000   141    10.0  1253.60
PE 10.000KE/1  Ex=1253.599eV WF=0.000eV Ck=XL Det=CTR1 
  Ekin    Phi    Theta  Counts
  90.950 22.000  0.000 285
  90.900 22.000  0.000 317
  90.850 22.000  0.000 277
  90.800 22.000  0.000 300
  90.750 22.000  0.000 303
  90.700 22.000  0.000 320
  90.650 22.000  0.000 319
  90.600 22.000  0.000 315
  90.550 22.000  0.000 337
  90.500 22.000  0.000 313
  90.450 22.000  0.000 357
  90.400 22.000  0.000 341
  90.350 22.000  0.000 377
  90.300 22.000  0.000 317
  90.250 22.000  0.000 353
  90.200 22.000  0.000 325
  90.150 22.000  0.000 362
  90.100 22.000  0.000 325
  90.050 22.000  0.000 327
  90.000 22.000  0.000 344
  89.950 22.000  0.000 305
  89.900 22.000  0.000 332
  89.850 22.000  0.000 307
  89.800 22.000  0.000 304
  89.750 22.000  0.000 260
  89.700 22.000  0.000 279
  89.650 22.000  0.000 267
  89.600 22.000  0.000 218
  89.550 22.000  0.000 290
  89.500 22.000  0.000 253
  89.450 22.000  0.000 226
  89.400 22.000  0.000 181
  89.350 22.000  0.000 228
  89.300 22.000  0.000 208
  89.250 22.000  0.000 204
  89.200 22.000  0.000 208
  89.150 22.000  0.000 205
  89.100 22.000  0.000 184
  89.050 22.000  0.000 186
  89.000 22.000  0.000 169
  88.950 22.000  0.000 172
  88.900 22.000  0.000 159
  88.850 22.000  0.000 153
  88.800 22.000  0.000 145
  88.750 22.000  0.000 155
  88.700 22.000  0.000 130
  88.650 22.000  0.000 158
  88.600 22.000  0.000 163
  88.550 22.000  0.000 143
  88.500 22.000  0.000 162
  88.450 22.000  0.000 157
  88.400 22.000  0.000 117
  88.350 22.000  0.000 135
  88.300 22.000  0.000 135
  88.250 22.000  0.000 145
  88.200 22.000  0.000 120
  88.150 22.000  0.000 124
  88.100 22.000  0.000 153
  88.050 22.000  0.000 164
  88.000 22.000  0.000 158
  87.950 22.000  0.000 155
  87.900 22.000  0.000 181
  87.850 22.000  0.000 173
  87.800 22.000  0.000 179
  87.750 22.000  0.000 142
  87.700 22.000  0.000 163
  87.650 22.000  0.000 158
  87.600 22.000  0.000 173
  87.550 22.000  0.000 140
  87.500 22.000  0.000 144
  87.450 22.000  0.000 147
  87.400 22.000  0.000 161
  87.350 22.000  0.000 143
  87.300 22.000  0.000 160
  87.250 22.000  0.000 151
  87.200 22.000  0.000 152
  87.150 22.000  0.000 160
  87.100 22.000  0.000 147
  87.050 22.000  0.000 162
  87.000 22.000  0.000 153
  86.950 22.000  0.000 166
  86.900 22.000  0.000 170
  86.850 22.000  0.000 137
  86.800 22.000  0.000 146
  86.750 22.000  0.000 159
  86.700 22.000  0.000 136
  86.650 22.000  0.000 130
  86.600 22.000  0.000 149
  86.550 22.000  0.000 124
  86.500 22.000  0.000 135
  86.450 22.000  0.000 165
  86.400 22.000  0.000 128
  86.350 22.000  0.000 140
  86.300 22.000  0.000 124
  86.250 22.000  0.000 126
  86.200 22.000  0.000 117
  86.150 22.000  0.000 129
  86.100 22.000  0.000 105
  86.050 22.000  0.000 110
  86.000 22.000  0.000 112
  85.950 22.000  0.000 117
  85.900 22.000  0.000 103
  85.850 22.000  0.000 85
  85.800 22.000  0.000 88
  85.750 22.000  0.000 82
  85.700 22.000  0.000 70
  85.650 22.000  0.000 64
  85.600 22.000  0.000 65
  85.550 22.000  0.000 73
  85.500 22.000  0.000 50
  85.450 22.000  0.000 55
  85.400 22.000  0.000 36
  85.350 22.000  0.000 43
  85.300 22.000  0.000 31
  85.250 22.000  0.000 35
  85.200 22.000  0.000 30
  85.150 22.000  0.000 22
  85.100 22.000  0.000 18
  85.050 22.000  0.000 23
  85.000 22.000  0.000 12
  84.950 22.000  0.000 21
  84.900 22.000  0.000 13
  84.850 22.000  0.000 7
  84.800 22.000  0.000 12
  84.750 22.000  0.000 6
  84.700 22.000  0.000 7
  84.650 22.000  0.000 7
  84.600 22.000  0.000 1
  84.550 22.000  0.000 6
  84.500 22.000  0.000 4
  84.450 22.000  0.000 6
  84.400 22.000  0.000 7
  84.350 22.000  0.000 3
  84.300 22.000  0.000 5
  84.250 22.000  0.000 3
  84.200 22.000  0.000 5
  84.150 22.000  0.000 6
  84.100 22.000  0.000 4
  84.050 22.000  0.000 2
  84.000 22.000  0.000 1
  83.950 22.000  0.000 5
    91.00000    98.00000     0.05000    15.00000     0.20000    20.00000     0.00000     0.00000     0.00000   141    10.0  1253.60
PE 10.000KE/1  Ex=1253.599eV WF=0.000eV Ck=XL Det=CTR1 
  Ekin    Phi    Theta  Counts
  90.950 20.000  0.000 152
  90.900 20.000  0.000 170
  90.850 20.000  0.000 203
  90.800 20.000  0.000 196
  90.750 20.000  0.000 190
  90.700 20.000  0.000 205
  90.650 20.000  0.000 182
  90.600 20.000  0.000 173
  90.550 20.000  0.000 203
  90.500 20.000  0.000 215
  90.450 20.000  0.000 217
  90.400 20.000  0.000 223
  90.350 20.000  0.000 229
  90.300 20.000  0.000 249
  90.250 20.000  0.000 213
  90.200 20.000  0.000 225
  90.150 20.000  0.000 233
  90.100 20.000  0.000 257
  90.050 20.000  0.000 227
  90.000 20.000  0.000 208
  89.950 20.000  0.000 230
  89.900 20.000  0.000 220
  89.850 20.000  0.000 217
  89.800 20.000  0.000 224
  89.750 20.000  0.000 235
  89.700 20.000  0.000 184
  89.650 20.000  0.000 235
  89.600 20.000  0.000 194
  89.550 20.000  0.000 186
  89.500 20.000  0.000 194
  89.450 20.000  0.000 185
  89.400 20.000  0.000 164
  89.350 20.000  0.000 168
  89.300 20.000  0.000 146
  89.250 20.000  0.000 155
  89.200 20.000  0.000 139
  89.150 20.000  0.000 129
  89.100 20.000  0.000 157
  89.050 20.000  0.000 117
  89.000 20.000  0.000 135
  88.950 20.000  0.000 115
  88.900 20.000  0.000 120
  88.850 20.000  0.000 121
  88.800 20.000  0.000 109
  88.750 20.000  0.000 110
  88.700 20.000  0.000 120
  88.650 20.000  0.000 94
  88.600 20.000  0.000 95
  88.550 20.000  0.000 117
  88.500 20.000  0.000 85
  88.450 20.000  0.000 83
  88.400 20.000  0.000 107
  88.350 20.000  0.000 113
  88.300 20.000  0.000 87
  88.250 20.000  0.000 92
  88.200 20.000  0.000 94
  88.150 20.000  0.000 77
  88.100 20.000  0.000 82
  88.050 20.000  0.000 93
  88.000 20.000  0.000 89
  87.950 20.000  0.000 78
  87.900 20.000  0.000 80
  87.850 20.000  0.000 86
  87.800 20.000  0.000 96
  87.750 20.000  0.000 86
  87.700 20.000  0.000 91
  87.650 20.000  0.000 106
  87.600 20.000  0.000 90
  87.550 20.000  0.000 98
  87.500 20.000  0.000 97
  87.450 20.000  0.000 114
  87.400 20.000  0.000 91
  87.350 20.000  0.000 105
  87.300 20.000  0.000 90
  87.250 20.000  0.000 95
  87.200 20.000  0.000 95
  87.150 20.000  0.000 105
  87.100 20.000  0.000 118
  87.050 20.000  0.000 101
  87.000 20.000  0.000 97
  86.950 20.000  0.000 100
  86.900 20.000  0.000 110
  86.850 20.000  0.000 95
  86.800 20.000  0.000 78
  86.750 20.000  0.000 74
  86.700 20.000  0.000 93
  86.650 20.000  0.000 110
  86.600 20.000  0.000 93
  86.550 20.000  0.000 89
  86.500 20.000  0.000 84
  86.450 20.000  0.000 85
  86.400 20.000  0.000 84
  86.350 20.000  0.000 100
  86.300 20.000  0.000 84
  86.250 20.000  0.000 79
  86.200 20.000  0.000 92
  86.150 20.000  0.000 87
  86.100 20.000  0.000 81
  86.050 20.000  0.000 81
  86.000 20.000  0.000 87
  85.950 20.000  0.000 70
  85.900 20.000  0.000 74
  85.850 20.000  0.000 65
  85.800 20.000  0.000 73
  85.750 20.000  0.000 65
  85.700 20.000  0.000 64
  85.650 20.000  0.000 52
  85.600 20.000  0.000 51
  85.550 20.000  0.000 57
  85.500 20.000  0.000 43
  85.450 20.000  0.000 47
  85.400 20.000  0.000 40
  85.350 20.000  0.000 36
  85.300 20.000  0.000 38
  85.250 20.000  0.000 37
  85.200 20.000  0.000 29
  85.150 20.000  0.000 27
  85.100 20.000  0.000 28
  85.050 20.000  0.000 16
  85.000 20.000  0.000 21
  84.950 20.000  0.000 16
  84.900 20.000  0.000 10
  84.850 20.000  0.000 12
  84.800 20.000  0.000 14
  84.750 20.000  0.000 14
  84.700 20.000  0.000 7
  84.650 20.000  0.000 7
  84.600 20.000  0.000 8
  84.550 20.000  0.000 5
  84.500 20.000  0.000 9
  84.450 20.000  0.000 3
  84.400 20.000  0.000 4
  84.350 20.000  0.000 1
  84.300 20.000  0.000 5
  84.250 20.000  0.000 7
  84.200 20.000  0.000 5
  84.150 20.000  0.000 2
  84.100 20.000  0.000 5
  84.050 20.000  0.000 2
  84.000 20.000  0.000 2
  83.950 20.000  0.000 1
